V-A Characteristics 1.6.5

Experiment
Name

L E G E N D
M1	Ausgangskennlinie 0.600V
M2	Ausgangskennlinie 0.630V
M3	Ausgangskennlinie 0.660V
M4	Ausgangskennlinie 0.700V

M1 - U [V]	M1 - I [에]	M2 - U [V]	M2 - I [에]	M3 - U [V]	M3 - I [에]	M4 - U [V]	M4 - I [에]
0,010	0,00	0,010	0,00	0,010	0,00	0,010	0,00
0,018	0,31	0,018	0,77	0,018	1,54	0,018	1,54
0,021	0,60	0,021	1,13	0,021	2,17	0,021	2,23
0,025	1,00	0,025	1,63	0,025	2,88	0,025	3,13
0,030	1,50	0,030	2,34	0,030	3,78	0,030	4,34
0,035	2,00	0,035	3,25	0,035	4,75	0,035	5,75
0,040	2,56	0,040	4,34	0,040	5,88	0,040	7,34
0,045	3,25	0,045	5,63	0,045	7,25	0,045	9,13
0,050	4,09	0,050	7,03	0,050	8,78	0,050	11,06
0,055	5,13	0,055	8,50	0,055	10,38	0,055	13,13
0,060	6,28	0,060	10,00	0,060	12,03	0,060	15,44
0,065	7,50	0,065	11,50	0,065	13,75	0,065	18,13
0,070	8,75	0,070	13,00	0,070	15,66	0,070	21,25
0,075	10,00	0,075	14,50	0,075	17,88	0,075	24,88
0,080	11,27	0,080	16,04	0,080	20,38	0,080	28,81
0,085	12,58	0,085	17,67	0,085	23,13	0,085	32,88
0,090	13,95	0,090	19,40	0,090	26,06	0,090	37,00
0,095	15,38	0,095	21,25	0,095	29,13	0,095	41,13
0,100	16,85	0,100	23,21	0,100	32,31	0,100	45,32
0,105	18,38	0,105	25,25	0,105	35,63	0,105	49,65
0,110	19,85	0,110	27,40	0,110	39,00	0,110	54,05
0,115	21,21	0,115	29,67	0,115	42,38	0,115	58,45
0,120	22,40	0,120	32,01	0,120	45,65	0,120	62,82
0,125	23,38	0,125	34,38	0,125	48,71	0,125	67,13
0,130	24,25	0,130	36,59	0,130	51,54	0,130	71,43
0,135	25,13	0,135	38,50	0,135	54,13	0,135	75,80
0,140	25,97	0,140	40,06	0,140	56,54	0,140	80,15
0,145	26,75	0,145	41,25	0,145	58,88	0,145	84,40
0,150	27,44	0,150	42,25	0,150	61,10	0,150	88,44
0,155	28,00	0,155	43,25	0,155	63,21	0,155	92,18
0,160	28,50	0,160	44,28	0,160	65,11	0,160	95,62
0,165	29,00	0,165	45,38	0,165	66,75	0,165	98,79
0,170	29,50	0,170	46,44	0,170	68,22	0,170	101,71
0,176	30,00	0,175	47,38	0,175	69,63	0,175	104,38
0,183	30,50	0,180	48,19	0,180	70,94	0,180	106,77
0,190	31,00	0,185	48,88	0,185	72,13	0,185	108,88
0,198	31,44	0,190	49,41	0,190	73,13	0,190	110,71
0,205	31,75	0,196	49,75	0,195	73,88	0,195	112,29
0,213	31,94	0,203	50,00	0,200	74,47	0,200	113,67
0,221	32,00	0,211	50,25	0,205	75,00	0,205	114,88
0,231	32,00	0,220	50,56	0,210	75,50	0,210	115,97
0,241	32,00	0,229	51,00	0,215	76,00	0,215	117,00
0,253	32,00	0,237	51,44	0,220	76,50	0,220	117,94
0,265	32,00	0,245	51,75	0,226	77,00	0,225	118,75
0,277	32,00	0,253	51,94	0,233	77,44	0,230	119,44
0,289	32,00	0,261	52,00	0,240	77,75	0,235	120,00
0,300	32,00	0,270	52,00	0,248	77,94	0,240	120,50
0,310	32,00	0,280	52,00	0,255	78,00	0,246	121,00
0,320	32,00	0,290	52,00	0,263	78,06	0,253	121,44
0,330	32,00	0,300	52,00	0,273	78,25	0,260	121,75
0,340	32,00	0,310	52,00	0,283	78,56	0,268	121,94
0,350	32,00	0,321	52,00	0,295	79,00	0,275	122,00
0,360	32,00	0,333	52,00	0,307	79,44	0,283	122,06
0,370	32,00	0,345	52,00	0,319	79,75	0,291	122,25
0,380	32,00	0,357	52,00	0,330	79,94	0,300	122,56
0,390	32,00	0,370	52,00	0,340	80,00	0,310	123,00
0,400	32,00	0,383	52,00	0,350	80,00	0,320	123,44
0,410	32,00	0,395	52,00	0,360	80,00	0,331	123,75
0,420	32,06	0,407	52,00	0,370	80,00	0,343	123,94
0,430	32,25	0,419	52,00	0,380	80,00	0,355	124,00
0,440	32,56	0,430	52,00	0,390	80,00	0,367	124,00
0,450	33,00	0,440	52,00	0,401	80,00	0,380	124,00
0,460	33,44	0,450	52,00	0,413	80,00	0,393	124,00
0,470	33,75	0,460	52,00	0,425	80,00	0,405	124,00
0,480	33,94	0,470	52,00	0,437	80,00	0,417	124,00
0,490	34,00	0,480	52,00	0,449	80,00	0,427	124,00
0,500	34,00	0,490	52,00	0,460	79,94	0,437	124,00
0,510	34,00	0,501	52,00	0,470	79,75	0,445	124,00
0,520	34,00	0,513	52,00	0,480	79,44	0,453	124,00
0,530	34,00	0,525	52,00	0,490	79,00	0,461	124,00
0,540	34,00	0,537	51,94	0,500	78,63	0,470	124,00
0,551	34,00	0,550	51,75	0,510	78,50	0,480	124,00
0,563	34,00	0,563	51,44	0,520	78,63	0,490	124,00
0,575	34,00	0,576	51,00	0,530	79,00	0,500	124,00
0,588	34,00	0,590	50,63	0,540	79,44	0,510	124,00
0,600	34,00	0,604	50,50	0,550	79,75	0,520	124,00
0,613	34,00	0,617	50,63	0,560	79,94	0,530	124,00
0,625	34,00	0,629	51,00	0,570	80,00	0,540	124,00
0,637	34,00	0,639	51,44	0,580	80,00	0,550	124,00
0,649	34,00	0,649	51,75	0,591	80,00	0,560	124,00
0,660	34,00	0,657	51,94	0,603	80,00	0,570	124,00
0,670	34,00	0,665	52,00	0,615	80,00	0,580	124,00
0,680	34,00	0,673	52,00	0,627	80,00	0,590	124,00
0,690	34,00	0,681	52,00	0,639	80,00	0,601	124,00
0,700	34,00	0,690	52,00	0,650	80,00	0,613	124,00
0,710	34,00	0,700	52,00	0,660	80,00	0,625	124,00
0,720	34,00	0,710	52,00	0,670	80,00	0,637	124,00
0,731	34,00	0,720	52,00	0,680	80,00	0,649	124,00
0,743	34,00	0,730	52,00	0,690	80,00	0,660	124,00
0,755	34,00	0,740	52,00	0,700	80,00	0,670	124,00
0,767	34,00	0,750	52,00	0,710	80,00	0,680	124,00
0,779	34,00	0,760	52,00	0,720	80,00	0,690	124,00
0,790	34,00	0,770	52,00	0,730	80,00	0,700	124,00
0,800	34,00	0,780	52,00	0,741	80,00	0,710	124,00
0,810	34,00	0,790	52,00	0,753	80,00	0,720	124,00
0,821	34,00	0,801	52,00	0,765	80,00	0,730	124,00
0,833	34,00	0,813	52,00	0,777	80,00	0,740	124,00
0,845	34,00	0,825	52,00	0,790	80,00	0,750	124,00
0,857	34,00	0,837	52,00	0,802	80,00	0,760	124,00
0,869	34,00	0,849	52,00	0,815	80,00	0,771	124,00
0,880	34,00	0,860	52,00	0,827	80,00	0,783	124,00
0,890	34,00	0,871	52,00	0,839	80,00	0,795	124,00
0,900	33,94	0,883	52,00	0,850	80,00	0,807	124,00
0,910	33,75	0,895	52,00	0,860	80,00	0,819	124,00
0,920	33,50	0,907	52,00	0,870	80,00	0,830	124,00
0,930	33,25	0,919	52,00	0,881	80,00	0,841	124,00
0,940	33,13	0,930	52,00	0,893	80,00	0,853	124,00
0,949	33,25	0,940	52,00	0,905	80,00	0,865	124,00
0,957	33,50	0,950	52,00	0,917	80,00	0,877	124,00
0,965	33,75	0,960	52,00	0,929	80,00	0,889	124,00
0,973	33,94	0,970	52,00	0,940	80,00	0,900	124,00
0,981	34,00	0,980	52,00	0,950	80,00	0,910	124,00
0,991	34,00	0,990	52,00	0,960	80,00	0,920	124,00
1,001	34,00	1,000	52,00	0,970	80,00	0,930	124,00
1,013	34,00	1,010	52,00	0,980	80,00	0,940	124,00
1,025	34,00	1,021	52,00	0,990	80,00	0,950	124,00
1,038	34,00	1,033	52,00	1,000	80,00	0,960	124,00
1,050	34,00	1,045	52,00	1,009	80,00	0,971	124,00
1,063	34,00	1,058	52,00	1,018	80,00	0,983	124,00
1,076	34,00	1,070	52,00	1,026	80,00	0,995	124,00
1,090	34,00	1,083	52,00	1,036	80,00	1,007	124,00
1,105	34,00	1,095	52,00	1,046	80,00	1,019	124,00
1,120	34,00	1,110	52,00	1,058	80,00	1,030	124,00
1,125	34,00	1,120	52,00	1,069	80,00	1,040	124,00
1,130	34,00	1,130	52,00	1,080	80,00	1,050	124,00
1,140	34,00	1,140	52,00	1,091	80,00	1,060	124,00
1,150	34,00	1,150	52,00	1,100	80,00	1,070	124,00
1,160	34,00	1,160	52,00	1,115	80,00	1,080	124,00
1,170	34,00	1,170	52,00	1,130	80,00	1,090	124,00
1,180	34,00	1,185	52,00	1,140	80,00	1,100	124,00
1,190	34,00	1,200	52,00	1,150	80,00	1,110	124,00
1,215	34,00	1,190	52,00	1,140	80,00	1,125	124,00
1,240	34,00	1,180	52,00	1,130	80,00	1,140	124,00
1,250	34,00	1,205	52,00	1,165	80,00	1,150	124,00
1,255	34,47	1,230	52,00	1,200	80,00	1,160	124,00
1,261	34,77	1,250	52,00	1,195	80,00	1,175	124,00
1,270	36,00	1,270	52,00	1,190	80,00	1,190	124,00
		1,255	52,00	1,230	80,00	1,200	124,00
		1,255	53,40	1,270	80,00	1,210	124,00
		1,256	54,31	1,240	80,00	1,225	124,00
		1,270	58,00	1,239	80,93	1,240	124,00
				1,242	81,54	1,255	124,00
				1,270	84,00	1,270	124,00
						1,260	124,00
						1,260	125,40
						1,261	126,31
						1,270	130,00
